wavelength
5.04
5.11
5.19
5.26
5.34
5.41
5.49
5.56
5.64
5.71
5.79
5.86
5.94
6.01
6.09
6.16
6.24
6.31
6.39
6.46
6.54
6.61
6.69
6.76
6.84
6.91
6.99
7.06
7.14
7.21
7.29
7.36
7.44
7.51
7.59
7.66
7.74
7.81
7.89
7.96
8.04
8.11
8.19
8.26
8.34
8.41
8.49
8.56
8.64
8.71
8.79
8.86
8.94
9.01
9.09
9.16
9.24
9.31
9.39
9.46
9.54
9.61
9.69
9.76
9.84
9.91
9.99
10.1
10.25
10.4
10.55
10.7
10.85
11
11.15
11.3
11.45
11.6
11.75
11.9
12.05
12.2
12.35
12.5
12.65
12.8
12.95
13.1
13.25
13.4
13.55
13.7
13.85
14
14.15
14.3
14.45
14.6
14.75
14.9
15.05
15.2
15.35
15.5
15.65
15.8
15.95
16.1
16.25
16.4
16.55
16.7
16.85
17
17.15
17.3
17.45
17.6
17.75
17.9
18.05
18.2
18.35
18.5
18.65
18.8
18.95
19.1
19.25
19.4
19.55
19.7
19.85